File: XRD/Reference Spectra/Pd2Si/powderpattern_xy_collCode#648847.csv
0.0,0.0
0.4,0.0
0.8,0.0
1.2,0.0
1.6,0.0
2.0,0.0
2.4,0.0
2.8,0.0
3.2,0.0
3.6,0.0
4.0,0.0
4.4,0.0
4.8,0.0
5.2,0.0
5.6,0.0
6.0,0.0
6.4,0.0
6.8,0.0
7.2,0.0
7.6,0.0
8.0,0.0
8.4,0.0
8.8,0.0
9.2,0.0
9.6,0.0
10.0,0.0
10.4,0.0
10.8,0.0
11.2,0.0
11.6,0.0
12.0,0.0
12.4,0.0
12.8,0.0
13.2,0.0
13.6,0.0
14.0,0.0
14.4,0.0
14.8,0.0
15.2,0.0
15.6,136.0
16.0,23.0
16.4,0.0
16.8,0.0
17.2,0.0
17.6,0.0
18.0,0.0
18.4,0.0
18.8,0.0
19.2,0.0
19.6,0.0
20.0,0.0
20.4,0.0
20.8,0.0
21.2,0.0
21.6,0.0
22.0,0.0
22.4,0.0
22.8,0.0
23.2,0.0
23.6,0.0
24.0,0.0
24.4,0.0
24.8,0.0
25.2,0.0
25.6,0.0
26.0,40.0
26.4,0.0
26.8,0.0
27.2,200.0
27.6,1656.0
28.0,0.0
28.4,0.0
28.8,0.0
29.2,0.0
29.6,0.0
30.0,0.0
30.4,996.0
30.8,30.0
31.2,0.0
31.6,33.0
32.0,44.0
32.4,0.0
32.8,0.0
33.2,0.0
33.6,0.0
34.0,0.0
34.4,0.0
34.8,0.0
35.2,0.0
35.6,0.0
36.0,0.0
36.4,0.0
36.8,0.0
37.2,0.0
37.6,0.0
38.0,8447.0
38.4,898.0
38.8,0.0
39.2,0.0
39.6,0.0
40.0,0.0
40.4,0.0
40.8,0.0
41.2,77.0
41.6,5233.0
42.0,0.0
42.4,5056.0
42.8,113.0
43.2,0.0
43.6,0.0
44.0,0.0
44.4,0.0
44.8,0.0
45.2,0.0
45.6,0.0
46.0,0.0
46.4,0.0
46.8,0.0
47.2,0.0
47.6,0.0
48.0,0.0
48.4,1797.0
48.8,143.0
49.2,0.0
49.6,0.0
50.0,0.0
50.4,1191.0
50.8,9.0
51.2,0.0
51.6,0.0
52.0,0.0
52.4,0.0
52.8,0.0
53.2,478.0
53.6,316.0
54.0,0.0
54.4,0.0
54.8,0.0
55.2,0.0
55.6,0.0
56.0,22.0
56.4,4.0
56.8,73.0
57.2,0.0
57.6,0.0
58.0,0.0
58.4,0.0
58.8,0.0
59.2,1558.0
59.6,0.0
60.0,0.0
60.4,0.0
60.8,15.0
61.2,314.0
61.6,0.0
62.0,0.0
62.4,0.0
62.8,0.0
63.2,348.0
63.6,73.0
64.0,0.0
64.4,0.0
64.8,0.0
65.2,0.0
65.6,1004.0
66.0,53.0
66.4,341.0
66.8,1.0
67.2,0.0
67.6,0.0
68.0,0.0
68.4,0.0
68.8,0.0
69.2,0.0
69.6,0.0
70.0,0.0
70.4,1591.0
70.8,45.0
71.2,0.0
71.6,0.0
72.0,0.0
72.4,69.0
72.8,355.0
73.2,237.0
73.6,21.0
74.0,0.0
74.4,0.0
74.8,173.0
75.2,411.0
75.6,0.0
76.0,0.0
76.4,0.0
76.8,0.0
77.2,0.0
77.6,6.0
78.0,3.0
78.4,0.0
78.8,0.0
79.2,1943.0
79.6,27.0
80.0,0.0
80.4,0.0
80.8,0.0
81.2,0.0
81.6,97.0
82.0,0.0
82.4,0.0
82.8,0.0
83.2,0.0
83.6,576.0
84.0,93.0
84.4,0.0
84.8,1.0
85.2,0.0
85.6,0.0
86.0,0.0
86.4,281.0
86.8,42.0
87.2,1.0
87.6,0.0
88.0,0.0
88.4,0.0
88.8,0.0
89.2,0.0
89.6,0.0
90.0,18.0
90.4,106.0
90.8,223.0
91.2,1296.0
91.6,0.0
92.0,32.0
92.4,318.0
92.8,364.0
93.2,255.0
93.6,32.0
94.0,0.0
94.4,0.0
94.8,0.0
95.2,0.0
95.6,0.0
96.0,0.0
96.4,11.0
96.8,427.0
97.2,0.0
97.6,0.0
98.0,0.0
98.4,2.0
98.8,228.0
99.2,68.0
99.6,200.0
100.0,71.0
100.4,0.0
100.8,0.0
100.9,0.0