File: XRD/Reference Spectra/Pd2Zn/powderpattern_xy_collCode#649139.csv
0.1,0.0
0.5,0.0
0.9,0.0
1.3,0.0
1.7,0.0
2.1,0.0
2.5,0.0
2.9,0.0
3.3,0.0
3.7,0.0
4.1,0.0
4.5,0.0
4.9,0.0
5.3,0.0
5.7,0.0
6.1,0.0
6.5,0.0
6.9,0.0
7.3,0.0
7.7,0.0
8.1,0.0
8.5,0.0
8.9,0.0
9.3,0.0
9.7,0.0
10.1,0.0
10.5,0.0
10.9,0.0
11.3,0.0
11.7,0.0
12.1,0.0
12.5,0.0
12.9,0.0
13.3,0.0
13.7,0.0
14.1,0.0
14.5,0.0
14.9,0.0
15.3,0.0
15.7,0.0
16.1,0.0
16.5,0.0
16.9,0.0
17.3,0.0
17.7,0.0
18.1,0.0
18.5,0.0
18.9,0.0
19.3,0.0
19.7,0.0
20.1,15.0
20.5,3.0
20.9,0.0
21.3,0.0
21.7,0.0
22.1,0.0
22.5,0.0
22.9,0.0
23.3,0.0
23.7,0.0
24.1,1.0
24.5,187.0
24.9,0.0
25.3,0.0
25.7,0.0
26.1,0.0
26.5,0.0
26.9,0.0
27.3,0.0
27.7,0.0
28.1,0.0
28.5,6.0
28.9,4.0
29.3,0.0
29.7,512.0
30.1,0.0
30.5,0.0
30.9,0.0
31.3,0.0
31.7,0.0
32.1,0.0
32.5,0.0
32.9,0.0
33.3,1.0
33.7,1.0
34.1,0.0
34.5,0.0
34.9,0.0
35.3,10.0
35.7,81.0
36.1,1665.0
36.5,0.0
36.9,0.0
37.3,0.0
37.7,0.0
38.1,0.0
38.5,0.0
38.9,82.0
39.3,305.0
39.7,0.0
40.1,2934.0
40.5,0.0
40.9,51.0
41.3,1338.0
41.7,4711.0
42.1,840.0
42.5,0.0
42.9,0.0
43.3,0.0
43.7,3869.0
44.1,0.0
44.5,0.0
44.9,177.0
45.3,37.0
45.7,0.0
46.1,0.0
46.5,0.0
46.9,448.0
47.3,0.0
47.7,0.0
48.1,0.0
48.5,3.0
48.9,0.0
49.3,999.0
49.7,5.0
50.1,0.0
50.5,19.0
50.9,12.0
51.3,0.0
51.7,0.0
52.1,0.0
52.5,39.0
52.9,43.0
53.3,2.0
53.7,0.0
54.1,0.0
54.5,60.0
54.9,0.0
55.3,0.0
55.7,167.0
56.1,3.0
56.5,0.0
56.9,104.0
57.3,4.0
57.7,60.0
58.1,0.0
58.5,0.0
58.9,0.0
59.3,245.0
59.7,5.0
60.1,602.0
60.5,0.0
60.9,0.0
61.3,5.0
61.7,1010.0
62.1,0.0
62.5,0.0
62.9,2.0
63.3,195.0
63.7,6.0
64.1,6.0
64.5,0.0
64.9,53.0
65.3,0.0
65.7,0.0
66.1,0.0
66.5,0.0
66.9,0.0
67.3,0.0
67.7,4.0
68.1,778.0
68.5,0.0
68.9,4.0
69.3,24.0
69.7,0.0
70.1,1.0
70.5,30.0
70.9,246.0
71.3,1.0
71.7,224.0
72.1,0.0
72.5,1.0
72.9,0.0
73.3,0.0
73.7,0.0
74.1,1.0
74.5,377.0
74.9,19.0
75.3,354.0
75.7,229.0
76.1,1.0
76.5,683.0
76.9,175.0
77.3,0.0
77.7,50.0
78.1,34.0
78.5,0.0
78.9,876.0
79.3,422.0
79.7,2.0
80.1,188.0
80.5,3.0
80.9,544.0
81.3,187.0
81.7,0.0
82.1,0.0
82.5,32.0
82.9,3.0
83.3,59.0
83.7,0.0
84.1,56.0
84.5,0.0
84.9,0.0
85.3,37.0
85.7,0.0
86.1,0.0
86.5,14.0
86.9,7.0
87.3,118.0
87.7,121.0
88.1,201.0
88.5,12.0
88.9,0.0
89.3,18.0
89.7,3.0
90.1,0.0
90.5,189.0
90.9,4.0
91.3,203.0
91.7,0.0
92.1,29.0
92.5,0.0
92.9,186.0
93.3,92.0
93.7,17.0
94.1,0.0
94.5,4.0
94.9,0.0
95.3,0.0
95.7,0.0
96.1,114.0
96.5,47.0
96.9,26.0
97.3,211.0
97.7,11.0
98.1,0.0
98.5,0.0
98.9,12.0
99.3,44.0
99.7,11.0
100.1,79.0
100.5,1.0
100.9,5.0
101.3,0.0
101.7,0.0
102.1,0.0
102.5,4.0
102.9,30.0
103.3,10.0
103.7,5.0
104.1,44.0
104.5,0.0
104.9,0.0
105.3,6.0
105.7,2.0
106.1,0.0
106.5,5.0
106.9,38.0
107.3,107.0
107.7,11.0
108.1,80.0
108.5,18.0
108.9,243.0
109.3,25.0
109.7,31.0
110.1,3.0
110.5,1.0
110.9,225.0
111.3,112.0
111.7,332.0
112.1,1.0
112.5,1.0
112.9,0.0
113.3,210.0
113.7,12.0
114.1,43.0
114.5,13.0
114.9,0.0
115.3,2.0
115.7,24.0
116.1,6.0
116.5,28.0
116.9,42.0
117.3,181.0
117.7,122.0
118.1,27.0
118.5,20.0
118.9,0.0
119.3,4.0
119.7,129.0
120.0,74.0