File: XRD/Reference Spectra/PdZn2/powderpattern_xy_collCode#105753.csv
0.1,0.0
0.5,0.0
0.9,0.0
1.3,0.0
1.7,0.0
2.1,0.0
2.5,0.0
2.9,0.0
3.3,0.0
3.7,0.0
4.1,0.0
4.5,0.0
4.9,0.0
5.3,0.0
5.7,0.0
6.1,0.0
6.5,0.0
6.9,0.0
7.3,1.0
7.7,0.0
8.1,0.0
8.5,0.0
8.9,0.0
9.3,0.0
9.7,0.0
10.1,0.0
10.5,0.0
10.9,0.0
11.3,0.0
11.7,0.0
12.1,0.0
12.5,0.0
12.9,0.0
13.3,0.0
13.7,0.0
14.1,0.0
14.5,0.0
14.9,0.0
15.3,0.0
15.7,0.0
16.1,0.0
16.5,0.0
16.9,11.0
17.3,0.0
17.7,0.0
18.1,0.0
18.5,0.0
18.9,0.0
19.3,0.0
19.7,0.0
20.1,0.0
20.5,0.0
20.9,0.0
21.3,0.0
21.7,123.0
22.1,0.0
22.5,0.0
22.9,0.0
23.3,0.0
23.7,10.0
24.1,134.0
24.5,14.0
24.9,65.0
25.3,172.0
25.7,0.0
26.1,0.0
26.5,0.0
26.9,0.0
27.3,7.0
27.7,150.0
28.1,32.0
28.5,4.0
28.9,0.0
29.3,0.0
29.7,0.0
30.1,0.0
30.5,0.0
30.9,0.0
31.3,0.0
31.7,0.0
32.1,8.0
32.5,6.0
32.9,1.0
33.3,0.0
33.7,0.0
34.1,11.0
34.5,0.0
34.9,0.0
35.3,0.0
35.7,0.0
36.1,0.0
36.5,2.0
36.9,0.0
37.3,0.0
37.7,112.0
38.1,112.0
38.5,214.0
38.9,8.0
39.3,428.0
39.7,0.0
40.1,0.0
40.5,965.0
40.9,4219.0
41.3,267.0
41.7,2.0
42.1,0.0
42.5,0.0
42.9,0.0
43.3,0.0
43.7,0.0
44.1,3094.0
44.5,26.0
44.9,7.0
45.3,2.0
45.7,0.0
46.1,0.0
46.5,0.0
46.9,0.0
47.3,0.0
47.7,1.0
48.1,36.0
48.5,1261.0
48.9,128.0
49.3,177.0
49.7,362.0
50.1,2.0
50.5,1.0
50.9,34.0
51.3,0.0
51.7,0.0
52.1,46.0
52.5,0.0
52.9,0.0
53.3,0.0
53.7,118.0
54.1,125.0
54.5,1.0
54.9,0.0
55.3,24.0
55.7,7.0
56.1,22.0
56.5,0.0
56.9,16.0
57.3,1.0
57.7,15.0
58.1,40.0
58.5,1.0
58.9,0.0
59.3,3.0
59.7,50.0
60.1,4.0
60.5,33.0
60.9,1.0
61.3,0.0
61.7,0.0
62.1,1.0
62.5,0.0
62.9,6.0
63.3,17.0
63.7,21.0
64.1,4.0
64.5,2.0
64.9,62.0
65.3,3.0
65.7,1.0
66.1,85.0
66.5,109.0
66.9,1.0
67.3,50.0
67.7,583.0
68.1,0.0
68.5,1467.0
68.9,7.0
69.3,0.0
69.7,0.0
70.1,0.0
70.5,11.0
70.9,52.0
71.3,11.0
71.7,958.0
72.1,19.0
72.5,1.0
72.9,0.0
73.3,38.0
73.7,66.0
74.1,14.0
74.5,47.0
74.9,14.0
75.3,133.0
75.7,181.0
76.1,11.0
76.5,132.0
76.9,2.0
77.3,0.0
77.7,19.0
78.1,65.0
78.5,0.0
78.9,2078.0
79.3,0.0
79.7,10.0
80.1,22.0
80.5,0.0
80.9,16.0
81.3,129.0
81.7,11.0
82.1,163.0
82.5,23.0
82.9,5.0
83.3,3.0
83.7,2.0
84.1,0.0
84.5,1.0
84.9,302.0
85.3,187.0
85.7,1.0
86.1,139.0
86.5,26.0
86.9,559.0
87.3,16.0
87.7,0.0
88.1,499.0
88.5,37.0
88.9,0.0
89.3,0.0
89.7,47.0
90.1,28.0
90.5,1.0
90.9,4.0
91.3,9.0
91.7,0.0
92.1,22.0
92.5,1.0
92.9,37.0
93.3,73.0
93.7,1.0
94.1,105.0
94.5,12.0
94.9,10.0
95.3,0.0
95.7,9.0
96.1,141.0
96.5,2.0
96.9,89.0
97.3,197.0
97.7,39.0
98.1,17.0
98.5,2.0
98.9,19.0
99.3,20.0
99.7,29.0
100.1,74.0
100.5,37.0
100.9,0.0
101.3,9.0
101.7,3.0
102.1,11.0
102.5,15.0
102.9,104.0
103.3,7.0
103.7,37.0
104.1,22.0
104.5,10.0
104.9,7.0
105.3,7.0
105.7,7.0
106.1,0.0
106.5,1.0
106.9,52.0
107.3,15.0
107.7,1.0
108.1,0.0
108.5,1.0
108.9,8.0
109.3,44.0
109.7,12.0
110.1,133.0
110.5,14.0
110.9,44.0
111.3,1.0
111.7,2.0
112.1,2.0
112.5,0.0
112.9,21.0
113.3,1.0
113.7,114.0
114.1,47.0
114.5,43.0
114.9,5.0
115.3,14.0
115.7,61.0
116.1,5.0
116.5,0.0
116.9,0.0
117.3,11.0
117.7,363.0
118.1,33.0
118.5,549.0
118.9,313.0
119.3,22.0
119.7,4.0
120.0,1.0